Frequency	value	MaxValue	S/N	D1	D2	D3	D4	D0	Ns	PhC	LPFilter	LS	RS	Tx
MHz     	a.u.	a.u.	a.u.	us	us	us	us	ms	scans	1 or 0	Hz	us	us	dB
														
														
30,580	63257,919	53,101	116,792	4,0	8,0	200,0	160,0	10000,0	40,0	1,0	0,0	37,0	53,0	11,0	1063
30,630	54910,014	47,661	94,325	4,0	8,0	200,0	160,0	10000,0	40,0	1,0	0,0	37,0	53,0	11,0	1064
30,680	36303,623	31,027	67,641	4,0	8,0	200,0	160,0	10000,0	40,0	1,0	0,0	37,0	53,0	11,0	1065
30,730	19407,063	16,343	40,212	4,0	8,0	200,0	160,0	10000,0	40,0	1,0	0,0	37,0	53,0	11,0	1066
30,780	7741,018	6,555	11,041	4,0	8,0	200,0	160,0	10000,0	40,0	1,0	0,0	37,0	53,0	11,0	1067
30,830	2467,180	2,562	3,840	4,0	8,0	200,0	160,0	10000,0	40,0	1,0	0,0	37,0	53,0	11,0	1068
30,880	1236,619	1,387	1,970	4,0	8,0	200,0	160,0	10000,0	40,0	1,0	0,0	37,0	53,0	11,0	1069
30,930	842,342	0,834	1,224	4,0	8,0	200,0	160,0	10000,0	40,0	1,0	0,0	37,0	53,0	11,0	1070
30,980	761,953	1,088	0,942	4,0	8,0	200,0	160,0	10000,0	40,0	1,0	0,0	37,0	53,0	11,0	1071
30,530	52636,834	38,520	74,751	4,0	8,0	200,0	160,0	10000,0	40,0	1,0	0,0	37,0	53,0	11,0	1072
30,480	28105,062	17,451	45,199	4,0	8,0	200,0	160,0	10000,0	40,0	1,0	0,0	37,0	53,0	11,0	1073
30,430	4875,069	3,674	6,305	4,0	8,0	200,0	160,0	10000,0	40,0	1,0	0,0	37,0	53,0	11,0	1074
30,380	1278,812	1,077	1,620	4,0	8,0	200,0	160,0	10000,0	40,0	1,0	0,0	37,0	53,0	11,0	1075
30,330	1161,943	1,145	1,013	4,0	8,0	200,0	160,0	10000,0	40,0	1,0	0,0	37,0	53,0	11,0	1076
30,280	973,740	1,056	1,716	4,0	8,0	200,0	160,0	10000,0	40,0	1,0	0,0	37,0	53,0	11,0	1077
